LOWTRAN solar irradiance
Scaled and reordered (using LOWSUN.BAS) from data sent by John Bahr
Wvl(nm) Irrad(W m-2 nm-1)
   173.974   1.0174E-03
   174.004   1.0188E-03
   174.034   1.0199E-03
   174.064   1.0223E-03
   174.095   1.0341E-03
   174.125   1.0627E-03
   174.155   1.1037E-03
   174.186   1.1399E-03
   174.216   1.1565E-03
   174.246   1.1572E-03
   174.277   1.1564E-03
   174.307   1.1586E-03
   174.338   1.1617E-03
   174.368   1.1629E-03
   174.398   1.1539E-03
   174.429   1.1400E-03
   174.459   1.1489E-03
   174.490   1.1824E-03
   174.520   1.2040E-03
   174.551   1.2000E-03
   174.581   1.1936E-03
   174.611   1.2013E-03
   174.642   1.2061E-03
   174.672   1.1791E-03
   174.703   1.1195E-03
   174.734   1.0577E-03
   174.764   1.0251E-03
   174.795   1.0284E-03
   174.825   1.0523E-03
   174.856   1.0797E-03
   174.886   1.1009E-03
   174.917   1.1120E-03
   174.948   1.1141E-03
   174.978   1.1183E-03
   175.009   1.1428E-03
   175.039   1.1868E-03
   175.070   1.2291E-03
   175.101   1.2590E-03
   175.131   1.2817E-03
   175.162   1.2987E-03
   175.193   1.3056E-03
   175.223   1.3002E-03
   175.254   1.2856E-03
   175.285   1.2731E-03
   175.316   1.2769E-03
   175.346   1.2980E-03
   175.377   1.3261E-03
   175.408   1.3548E-03
   175.439   1.3861E-03
   175.469   1.4188E-03
   175.500   1.4408E-03
   175.531   1.4417E-03
   175.562   1.4268E-03
   175.593   1.4087E-03
   175.623   1.3933E-03
   175.654   1.3813E-03
   175.685   1.3779E-03
   175.716   1.3908E-03
   175.747   1.4119E-03
   175.778   1.4221E-03
   175.809   1.4185E-03
   175.840   1.4229E-03
   175.871   1.4506E-03
   175.901   1.4781E-03
   175.932   1.4760E-03
   175.963   1.4544E-03
   175.994   1.4399E-03
   176.025   1.4398E-03
   176.056   1.4465E-03
   176.087   1.4606E-03
   176.118   1.4902E-03
   176.149   1.5282E-03
   176.180   1.5521E-03
   176.211   1.5443E-03
   176.243   1.4950E-03
   176.274   1.4142E-03
   176.305   1.3437E-03
   176.336   1.3159E-03
   176.367   1.3224E-03
   176.398   1.3482E-03
   176.429   1.3800E-03
   176.460   1.3884E-03
   176.491   1.3588E-03
   176.523   1.3091E-03
   176.554   1.2611E-03
   176.585   1.2348E-03
   176.616   1.2605E-03
   176.647   1.3588E-03
   176.678   1.5115E-03
   176.710   1.6623E-03
   176.741   1.7546E-03
   176.772   1.7678E-03
   176.803   1.7186E-03
   176.835   1.6411E-03
   176.866   1.5699E-03
   176.897   1.5312E-03
   176.929   1.5290E-03
   176.960   1.5450E-03
   176.991   1.5726E-03
   177.022   1.6222E-03
   177.054   1.6874E-03
   177.085   1.7540E-03
   177.117   1.8193E-03
   177.148   1.8663E-03
   177.179   1.8824E-03
   177.211   1.9002E-03
   177.242   1.9573E-03
   177.274   2.0384E-03
   177.305   2.0909E-03
   177.336   2.0872E-03
   177.368   2.0451E-03
   177.399   1.9784E-03
   177.431   1.8771E-03
   177.462   1.7410E-03
   177.494   1.5970E-03
   177.525   1.4834E-03
   177.557   1.4252E-03
   177.588   1.4237E-03
   177.620   1.4616E-03
   177.651   1.5142E-03
   177.683   1.5583E-03
   177.715   1.5818E-03
   177.746   1.5924E-03
   177.778   1.6077E-03
   177.809   1.6389E-03
   177.841   1.6965E-03
   177.873   1.7832E-03
   177.904   1.8717E-03
   177.936   1.9203E-03
   177.968   1.9218E-03
   177.999   1.9173E-03
   178.031   1.9430E-03
   178.063   1.9807E-03
   178.094   1.9907E-03
   178.126   1.9548E-03
   178.158   1.8782E-03
   178.190   1.7900E-03
   178.221   1.7330E-03
   178.253   1.7303E-03
   178.285   1.7716E-03
   178.317   1.8289E-03
   178.348   1.8747E-03
   178.380   1.8975E-03
   178.412   1.9038E-03
   178.444   1.9018E-03
   178.476   1.8939E-03
   178.508   1.8887E-03
   178.540   1.9019E-03
   178.571   1.9357E-03
   178.603   1.9635E-03
   178.635   1.9588E-03
   178.667   1.9300E-03
   178.699   1.9049E-03
   178.731   1.8977E-03
   178.763   1.9023E-03
   178.795   1.9088E-03
   178.827   1.9194E-03
   178.859   1.9461E-03
   178.891   2.0001E-03
   178.923   2.0685E-03
   178.955   2.1095E-03
   178.987   2.1062E-03
   179.019   2.0953E-03
   179.051   2.1086E-03
   179.083   2.1347E-03
   179.115   2.1481E-03
   179.147   2.1385E-03
   179.179   2.0980E-03
   179.211   2.0124E-03
   179.244   1.9015E-03
   179.276   1.8120E-03
   179.308   1.7519E-03
   179.340   1.7036E-03
   179.372   1.6708E-03
   179.404   1.6656E-03
   179.437   1.6853E-03
   179.469   1.7188E-03
   179.501   1.7618E-03
   179.533   1.8143E-03
   179.565   1.8635E-03
   179.598   1.8844E-03
   179.630   1.8693E-03
   179.662   1.8465E-03
   179.695   1.8470E-03
   179.727   1.8726E-03
   179.759   1.9058E-03
   179.791   1.9312E-03
   179.824   1.9454E-03
   179.856   1.9537E-03
   179.888   1.9613E-03
   179.921   1.9699E-03
   179.953   1.9799E-03
   179.986   1.9930E-03
   180.018   2.0121E-03
   180.050   2.0400E-03
   180.083   2.0754E-03
   180.115   2.1101E-03
   180.148   2.1343E-03
   180.180   2.1481E-03
   180.213   2.1581E-03
   180.245   2.1588E-03
   180.278   2.1460E-03
   180.310   2.1396E-03
   180.343   2.1461E-03
   180.375   2.1438E-03
   180.408   2.1321E-03
   180.440   2.1356E-03
   180.473   2.1657E-03
   180.505   2.2103E-03
   180.538   2.2481E-03
   180.571   2.2654E-03
   180.603   2.2580E-03
   180.636   2.2171E-03
   180.668   2.1391E-03
   180.701   2.0729E-03
   180.734   2.1436E-03
   180.766   2.4473E-03
   180.799   2.8859E-03
   180.832   3.2206E-03
   180.865   3.2984E-03
   180.897   3.1288E-03
   180.930   2.8119E-03
   180.963   2.4726E-03
   180.995   2.2343E-03
   181.028   2.1641E-03
   181.061   2.2148E-03
   181.094   2.2783E-03
   181.127   2.2895E-03
   181.159   2.2574E-03
   181.192   2.2170E-03
   181.225   2.1899E-03
   181.258   2.1864E-03
   181.291   2.1955E-03
   181.324   2.1878E-03
   181.357   2.1520E-03
   181.389   2.0963E-03
   181.422   2.0361E-03
   181.455   2.0043E-03
   181.488   2.0301E-03
   181.521   2.0871E-03
   181.554   2.1119E-03
   181.587   2.1418E-03
   181.620   2.3600E-03
   181.653   2.9059E-03
   181.686   3.7071E-03
   181.719   4.5135E-03
   181.752   5.0295E-03
   181.785   5.0044E-03
   181.818   4.4006E-03
   181.851   3.5757E-03
   181.884   2.9720E-03
   181.917   2.6809E-03
   181.951   2.5773E-03
   181.984   2.5455E-03
   182.017   2.4872E-03
   182.050   2.3855E-03
   182.083   2.3162E-03
   182.116   2.3365E-03
   182.149   2.4284E-03
   182.183   2.5276E-03
   182.216   2.5809E-03
   182.249   2.5931E-03
   182.282   2.6171E-03
   182.315   2.6927E-03
   182.349   2.8001E-03
   182.382   2.8990E-03
   182.415   2.9774E-03
   182.448   3.0175E-03
   182.482   2.9958E-03
   182.515   2.9290E-03
   182.548   2.8466E-03
   182.582   2.7553E-03
   182.615   2.6616E-03
   182.648   2.5889E-03
   182.682   2.5564E-03
   182.715   2.5532E-03
   182.749   2.5445E-03
   182.782   2.5100E-03
   182.815   2.4684E-03
   182.849   2.4546E-03
   182.882   2.4840E-03
   182.916   2.5431E-03
   182.949   2.6024E-03
   182.983   2.6305E-03
   183.016   2.6124E-03
   183.050   2.5681E-03
   183.083   2.5351E-03
   183.117   2.5341E-03
   183.150   2.5663E-03
   183.184   2.6218E-03
   183.217   2.6830E-03
   183.251   2.7374E-03
   183.284   2.7705E-03
   183.318   2.7650E-03
   183.352   2.7366E-03
   183.385   2.7303E-03
   183.419   2.7732E-03
   183.453   2.8550E-03
   183.486   2.9398E-03
   183.520   2.9911E-03
   183.554   2.9953E-03
   183.587   2.9536E-03
   183.621   2.8707E-03
   183.655   2.7729E-03
   183.688   2.7138E-03
   183.722   2.7288E-03
   183.756   2.7894E-03
   183.790   2.8374E-03
   183.824   2.8517E-03
   183.857   2.8609E-03
   183.891   2.9114E-03
   183.925   3.0064E-03
   183.959   3.0681E-03
   183.993   3.0103E-03
   184.026   2.8508E-03
   184.060   2.6891E-03
   184.094   2.5524E-03
   184.128   2.3973E-03
   184.162   2.2637E-03
   184.196   2.2405E-03
   184.230   2.3320E-03
   184.264   2.4682E-03
   184.298   2.5823E-03
   184.332   2.6427E-03
   184.366   2.6464E-03
   184.400   2.6196E-03
   184.434   2.6069E-03
   184.468   2.6216E-03
   184.502   2.6128E-03
   184.536   2.5361E-03
   184.570   2.4296E-03
   184.604   2.3606E-03
   184.638   2.3479E-03
   184.672   2.3551E-03
   184.706   2.3248E-03
   184.740   2.2233E-03
   184.775   2.0816E-03
   184.809   1.9843E-03
   184.843   1.9891E-03
   184.877   2.0850E-03
   184.911   2.2444E-03
   184.945   2.4508E-03
   184.980   2.6495E-03
   185.014   2.7226E-03
   185.048   2.5856E-03
   185.082   2.3257E-03
   185.117   2.1482E-03
   185.151   2.1301E-03
   185.185   2.1811E-03
   185.219   2.2245E-03
   185.254   2.2510E-03
   185.288   2.2953E-03
   185.322   2.3959E-03
   185.357   2.5324E-03
   185.391   2.6952E-03
   185.426   2.9094E-03
   185.460   3.1173E-03
   185.494   3.2364E-03
   185.529   3.2661E-03
   185.563   3.2391E-03
   185.598   3.2088E-03
   185.632   3.2128E-03
   185.667   3.1990E-03
   185.701   3.1062E-03
   185.736   2.9659E-03
   185.770   2.8569E-03
   185.805   2.8128E-03
   185.839   2.8111E-03
   185.874   2.8165E-03
   185.908   2.8024E-03
   185.943   2.7667E-03
   185.977   2.7424E-03
   186.012   2.7626E-03
   186.047   2.8121E-03
   186.081   2.8450E-03
   186.116   2.8500E-03
   186.150   2.8590E-03
   186.185   2.8903E-03
   186.220   2.9316E-03
   186.254   2.9854E-03
   186.289   3.0596E-03
   186.324   3.1178E-03
   186.359   3.1106E-03
   186.393   3.0552E-03
   186.428   3.0025E-03
   186.463   2.9505E-03
   186.498   2.8967E-03
   186.532   2.8638E-03
   186.567   2.8432E-03
   186.602   2.8515E-03
   186.637   2.9483E-03
   186.672   3.1230E-03
   186.706   3.2845E-03
   186.741   3.4020E-03
   186.776   3.5212E-03
   186.811   3.6251E-03
   186.846   3.6608E-03
   186.881   3.6494E-03
   186.916   3.6410E-03
   186.951   3.6397E-03
   186.986   3.6373E-03
   187.021   3.6422E-03
   187.056   3.6439E-03
   187.091   3.6578E-03
   187.126   3.7268E-03
   187.161   3.8024E-03
   187.196   3.8023E-03
   187.231   3.7290E-03
   187.266   3.6238E-03
   187.301   3.5257E-03
   187.336   3.4804E-03
   187.371   3.5112E-03
   187.406   3.5872E-03
   187.441   3.6448E-03
   187.477   3.6396E-03
   187.512   3.5820E-03
   187.547   3.5339E-03
   187.582   3.5345E-03
   187.617   3.5478E-03
   187.652   3.5406E-03
   187.688   3.5258E-03
   187.723   3.5165E-03
   187.758   3.5155E-03
   187.793   3.5151E-03
   187.829   3.4972E-03
   187.864   3.4602E-03
   187.899   3.4188E-03
   187.935   3.3807E-03
   187.970   3.3482E-03
   188.005   3.3326E-03
   188.041   3.3313E-03
   188.076   3.3222E-03
   188.111   3.3039E-03
   188.147   3.2887E-03
   188.182   3.2824E-03
   188.218   3.3222E-03
   188.253   3.4693E-03
   188.288   3.6940E-03
   188.324   3.8570E-03
   188.359   3.8923E-03
   188.395   3.8856E-03
   188.430   3.8978E-03
   188.466   3.8689E-03
   188.501   3.7944E-03
   188.537   3.7660E-03
   188.573   3.7934E-03
   188.608   3.8098E-03
   188.644   3.8028E-03
   188.679   3.8148E-03
   188.715   3.8518E-03
   188.750   3.8654E-03
   188.786   3.8260E-03
   188.822   3.7675E-03
   188.857   3.7529E-03
   188.893   3.8192E-03
   188.929   3.9379E-03
   188.964   4.0255E-03
   189.000   4.0374E-03
   189.036   4.0078E-03
   189.072   3.9956E-03
   189.107   4.0467E-03
   189.143   4.1749E-03
   189.179   4.3474E-03
   189.215   4.5130E-03
   189.251   4.6101E-03
   189.286   4.5131E-03
   189.322   4.1958E-03
   189.358   3.9475E-03
   189.394   3.9680E-03
   189.430   4.0993E-03
   189.466   4.2231E-03
   189.502   4.2948E-03
   189.538   4.2506E-03
   189.573   4.1623E-03
   189.609   4.1235E-03
   189.645   4.1302E-03
   189.681   4.1421E-03
   189.717   4.0995E-03
   189.753   3.9671E-03
   189.789   3.7890E-03
   189.825   3.6381E-03
   189.861   3.5375E-03
   189.897   3.4929E-03
   189.934   3.5357E-03
   189.970   3.6708E-03
   190.006   3.8377E-03
   190.042   3.9525E-03
   190.078   3.9598E-03
   190.114   3.8589E-03
   190.150   3.7344E-03
   190.186   3.7099E-03
   190.223   3.8127E-03
   190.259   3.9457E-03
   190.295   4.0405E-03
   190.331   4.1389E-03
   190.367   4.2718E-03
   190.404   4.3738E-03
   190.440   4.3742E-03
   190.476   4.3061E-03
   190.512   4.2549E-03
   190.549   4.2149E-03
   190.585   4.1462E-03
   190.621   4.1060E-03
   190.658   4.1452E-03
   190.694   4.2259E-03
   190.730   4.2947E-03
   190.767   4.3358E-03
   190.803   4.3959E-03
   190.840   4.5222E-03
   190.876   4.6781E-03
   190.913   4.7938E-03
   190.949   4.8206E-03
   190.985   4.6859E-03
   191.022   4.3897E-03
   191.058   4.1495E-03
   191.095   4.1084E-03
   191.131   4.1462E-03
   191.168   4.1978E-03
   191.205   4.2973E-03
   191.241   4.3900E-03
   191.278   4.4066E-03
   191.314   4.3830E-03
   191.351   4.3903E-03
   191.388   4.4314E-03
   191.424   4.4812E-03
   191.461   4.5586E-03
   191.498   4.6828E-03
   191.534   4.8471E-03
   191.571   5.0065E-03
   191.608   5.0377E-03
   191.644   4.9283E-03
   191.681   4.8334E-03
   191.718   4.7858E-03
   191.755   4.7033E-03
   191.791   4.5905E-03
   191.828   4.5040E-03
   191.865   4.4661E-03
   191.902   4.4828E-03
   191.939   4.5534E-03
   191.975   4.6549E-03
   192.012   4.7686E-03
   192.049   4.8880E-03
   192.086   5.0156E-03
   192.123   5.1537E-03
   192.160   5.2505E-03
   192.197   5.2229E-03
   192.234   5.0736E-03
   192.271   4.9252E-03
   192.308   4.8957E-03
   192.345   4.9527E-03
   192.382   4.9596E-03
   192.419   4.8713E-03
   192.456   4.7725E-03
   192.493   4.7132E-03
   192.530   4.6861E-03
   192.567   4.7293E-03
   192.604   4.8236E-03
   192.641   4.8453E-03
   192.678   4.7666E-03
   192.715   4.6981E-03
   192.753   4.7059E-03
   192.790   4.7624E-03
   192.827   4.8392E-03
   192.864   4.8999E-03
   192.901   4.8855E-03
   192.938   4.7781E-03
   192.976   4.5999E-03
   193.013   4.3558E-03
   193.050   4.0573E-03
   193.087   3.7372E-03
   193.125   3.4535E-03
   193.162   3.3002E-03
   193.199   3.2576E-03
   193.237   3.2284E-03
   193.274   3.2659E-03
   193.311   3.4292E-03
   193.349   3.5876E-03
   193.386   3.6281E-03
   193.424   3.6296E-03
   193.461   3.6534E-03
   193.498   3.5949E-03
   193.536   3.4144E-03
   193.573   3.2596E-03
   193.611   3.1994E-03
   193.648   3.1349E-03
   193.686   3.1028E-03
   193.723   3.2906E-03
   193.761   3.6625E-03
   193.798   4.0151E-03
   193.836   4.3168E-03
   193.874   4.6348E-03
   193.911   4.9315E-03
   193.949   5.1279E-03
   193.986   5.2227E-03
   194.024   5.2635E-03
   194.062   5.2989E-03
   194.099   5.3963E-03
   194.137   5.6431E-03
   194.175   6.0135E-03
   194.212   6.3024E-03
   194.250   6.4082E-03
   194.288   6.4564E-03
   194.326   6.4968E-03
   194.363   6.4300E-03
   194.401   6.2541E-03
   194.439   6.0754E-03
   194.477   5.9674E-03
   194.515   5.9618E-03
   194.553   5.9715E-03
   194.590   5.8790E-03
   194.628   5.7428E-03
   194.666   5.6651E-03
   194.704   5.6987E-03
   194.742   5.9241E-03
   194.780   6.3107E-03
   194.818   6.6238E-03
   194.856   6.7185E-03
   194.894   6.6965E-03
   194.932   6.6325E-03
   194.970   6.4525E-03
   195.008   6.1703E-03
   195.046   5.9630E-03
   195.084   5.8933E-03
   195.122   5.8245E-03
   195.160   5.6819E-03
   195.198   5.4935E-03
   195.236   5.3256E-03
   195.274   5.2981E-03
   195.313   5.4452E-03
   195.351   5.7421E-03
   195.389   6.1097E-03
   195.427   6.3271E-03
   195.465   6.2895E-03
   195.503   6.1063E-03
   195.542   5.9218E-03
   195.580   5.8447E-03
   195.618   5.9102E-03
   195.656   6.0795E-03
   195.695   6.2454E-03
   195.733   6.2542E-03
   195.771   6.0855E-03
   195.810   5.9557E-03
   195.848   6.0451E-03
   195.886   6.2708E-03
   195.925   6.4637E-03
   195.963   6.5437E-03
   196.002   6.4997E-03
   196.040   6.3681E-03
   196.078   6.1865E-03
   196.117   5.9608E-03
   196.155   5.7745E-03
   196.194   5.7326E-03
   196.232   5.7909E-03
   196.271   5.8568E-03
   196.309   5.9038E-03
   196.348   5.9384E-03
   196.386   6.0139E-03
   196.425   6.2227E-03
   196.464   6.5535E-03
   196.502   6.8533E-03
   196.541   7.0298E-03
   196.580   7.1335E-03
   196.618   7.2052E-03
   196.657   7.2531E-03
   196.696   7.2938E-03
   196.734   7.3220E-03
   196.773   7.3372E-03
   196.812   7.3592E-03
   196.850   7.4071E-03
   196.889   7.4621E-03
   196.928   7.4712E-03
   196.967   7.4139E-03
   197.006   7.2779E-03
   197.044   7.0467E-03
   197.083   6.8377E-03
   197.122   6.8068E-03
   197.161   6.8556E-03
   197.200   6.8266E-03
   197.239   6.7885E-03
   197.278   6.8250E-03
   197.316   6.8750E-03
   197.355   6.8343E-03
   197.394   6.7110E-03
   197.433   6.6188E-03
   197.472   6.5979E-03
   197.511   6.6189E-03
   197.550   6.6696E-03
   197.589   6.7227E-03
   197.628   6.7271E-03
   197.668   6.6486E-03
   197.707   6.5198E-03
   197.746   6.4856E-03
   197.785   6.6321E-03
   197.824   6.7853E-03
   197.863   6.7627E-03
   197.902   6.6501E-03
   197.941   6.6007E-03
   197.981   6.5980E-03
   198.020   6.5868E-03
   198.059   6.6293E-03
   198.098   6.7966E-03
   198.138   7.0488E-03
   198.177   7.2950E-03
   198.216   7.4012E-03
   198.255   7.2020E-03
   198.295   6.8336E-03
   198.334   6.6558E-03
   198.373   6.6812E-03
   198.413   6.7374E-03
   198.452   6.8310E-03
   198.491   6.9566E-03
   198.531   6.9398E-03
   198.570   6.6594E-03
   198.610   6.3031E-03
   198.649   6.0941E-03
   198.689   6.0277E-03
   198.728   6.0929E-03
   198.768   6.2527E-03
   198.807   6.3140E-03
   198.847   6.1988E-03
   198.886   6.0676E-03
   198.926   6.0587E-03
   198.965   6.1889E-03
   199.005   6.3984E-03
   199.045   6.5610E-03
   199.084   6.5869E-03
   199.124   6.5232E-03
   199.164   6.5430E-03
   199.203   6.8063E-03
   199.243   7.2138E-03
   199.283   7.5116E-03
   199.322   7.6978E-03
   199.362   7.9140E-03
   199.402   8.0948E-03
   199.442   8.0588E-03
   199.481   7.8104E-03
   199.521   7.5728E-03
   199.561   7.4995E-03
   199.601   7.5163E-03
   199.641   7.5319E-03
   199.681   7.5484E-03
   199.720   7.5049E-03
   199.760   7.3340E-03
   199.800   7.1423E-03
   199.840   7.1263E-03
   199.880   7.3239E-03
   199.920   7.5252E-03
   199.960   7.5261E-03
   200.000   7.4198E-03
   200.040   7.4059E-03
   200.080   7.4489E-03
   200.120   7.4289E-03
   200.160   7.4013E-03
   200.200   7.4969E-03
   200.240   7.6963E-03
   200.280   7.8923E-03
   200.321   8.0428E-03
   200.361   8.0816E-03
   200.401   8.0183E-03
   200.441   7.9390E-03
   200.481   7.8124E-03
   200.521   7.6987E-03
   200.562   7.7632E-03
   200.602   8.0263E-03
   200.642   8.3309E-03
   200.682   8.4811E-03
   200.723   8.4263E-03
   200.763   8.2376E-03
   200.803   8.0492E-03
   200.844   7.9580E-03
   200.884   7.9266E-03
   200.924   7.9367E-03
   200.965   8.0003E-03
   201.005   8.0914E-03
   201.045   8.2515E-03
   201.086   8.4086E-03
   201.126   8.2725E-03
   201.167   7.8692E-03
   201.207   7.6239E-03
   201.248   7.7296E-03
   201.288   8.0091E-03
   201.329   8.3312E-03
   201.369   8.6750E-03
   201.410   8.8866E-03
   201.450   8.8310E-03
   201.491   8.6285E-03
   201.532   8.4533E-03
   201.572   8.3475E-03
   201.613   8.2859E-03
   201.654   8.2598E-03
   201.694   8.2979E-03
   201.735   8.4237E-03
   201.776   8.6138E-03
   201.816   8.8441E-03
   201.857   9.1290E-03
