     SUSIM SL2 high resolution (0.15nm) Solar Irridance data.
     Irradiance values are given in milliwatts/m^2/nanomenters
     and are listed at 0.05nm intervals.  The wavelength given is
     the center wavelength of the 0.15nm triangular bandpass.
 
  wave     w+0.00      w+0.05      w+0.10      w+0.15      w+0.20      w+0.25      w+0.30      w+0.35      w+0.40      w+0.45
 
 120.50  0.6525E-01  0.2662E+00  0.5396E+00  0.5506E+00  0.3325E+00  0.5456E-01  0.5860E-01  0.6201E-01  0.5934E-01  0.6588E-01
 121.00  0.6787E-01  0.8138E-01  0.8514E-01  0.1009E+00  0.1272E+00  0.1409E+00  0.1875E+00  0.3042E+00  0.5199E+00  0.1469E+01
 121.50  0.6272E+01  0.1400E+02  0.2645E+02  0.2873E+02  0.1863E+02  0.6863E+01  0.1381E+01  0.4207E+00  0.3229E+00  0.2668E+00
 122.00  0.1765E+00  0.1098E+00  0.8889E-01  0.8038E-01  0.6954E-01  0.5756E-01  0.4989E-01  0.4755E-01  0.4633E-01  0.3926E-01
 122.50  0.3735E-01  0.3612E-01  0.3001E-01  0.3038E-01  0.2856E-01  0.2802E-01  0.2865E-01  0.2814E-01  0.2651E-01  0.2626E-01
 123.00  0.2577E-01  0.2378E-01  0.2152E-01  0.2070E-01  0.2084E-01  0.2112E-01  0.2122E-01  0.1988E-01  0.2006E-01  0.1868E-01
 123.50  0.1921E-01  0.1972E-01  0.2055E-01  0.2020E-01  0.1961E-01  0.1664E-01  0.3151E-01  0.5076E-01  0.6939E-01  0.4579E-01
 124.00  0.2100E-01  0.1886E-01  0.1938E-01  0.2038E-01  0.3138E-01  0.4421E-01  0.4507E-01  0.2842E-01  0.1492E-01  0.1453E-01
 124.50  0.1477E-01  0.1654E-01  0.1496E-01  0.1512E-01  0.1931E-01  0.1759E-01  0.1478E-01  0.1514E-01  0.1533E-01  0.1526E-01
 125.00  0.1865E-01  0.2031E-01  0.1695E-01  0.1254E-01  0.1234E-01  0.1606E-01  0.2126E-01  0.2602E-01  0.2098E-01  0.1556E-01
 125.50  0.1403E-01  0.1755E-01  0.2363E-01  0.2201E-01  0.1753E-01  0.1818E-01  0.2366E-01  0.3283E-01  0.3711E-01  0.4311E-01
 126.00  0.5027E-01  0.4084E-01  0.2634E-01  0.1812E-01  0.1471E-01  0.9788E-02  0.1084E-01  0.3914E-01  0.8849E-01  0.1015E+00
 126.50  0.4607E-01  0.2981E-01  0.2373E-01  0.2186E-01  0.1755E-01  0.1231E-01  0.1225E-01  0.1165E-01  0.1072E-01  0.1255E-01
 127.00  0.1221E-01  0.1257E-01  0.1345E-01  0.1050E-01  0.1163E-01  0.1095E-01  0.1139E-01  0.1562E-01  0.1928E-01  0.2403E-01
 127.50  0.2547E-01  0.2053E-01  0.2124E-01  0.2473E-01  0.2479E-01  0.1914E-01  0.1561E-01  0.1617E-01  0.1914E-01  0.2501E-01
 128.00  0.2105E-01  0.1789E-01  0.1548E-01  0.1397E-01  0.1888E-01  0.1915E-01  0.1883E-01  0.2021E-01  0.1900E-01  0.1753E-01
 128.50  0.1462E-01  0.1410E-01  0.1486E-01  0.1229E-01  0.1376E-01  0.2190E-01  0.3000E-01  0.2177E-01  0.2008E-01  0.1981E-01
 129.00  0.1648E-01  0.1494E-01  0.1392E-01  0.1306E-01  0.1302E-01  0.1233E-01  0.1151E-01  0.1445E-01  0.1617E-01  0.1631E-01
 129.50  0.2081E-01  0.2509E-01  0.2367E-01  0.1748E-01  0.1444E-01  0.1478E-01  0.1952E-01  0.2902E-01  0.2574E-01  0.2263E-01
 130.00  0.2445E-01  0.3403E-01  0.9062E-01  0.1774E+00  0.2312E+00  0.1893E+00  0.8462E-01  0.3443E-01  0.1105E+00  0.2424E+00
 130.50  0.2968E+00  0.3120E+00  0.2960E+00  0.1898E+00  0.6908E-01  0.1702E-01  0.1476E-01  0.3080E-01  0.5714E-01  0.7034E-01
 131.00  0.4775E-01  0.2319E-01  0.2641E-01  0.3111E-01  0.2686E-01  0.2085E-01  0.2240E-01  0.2512E-01  0.1888E-01  0.1369E-01
 131.50  0.1459E-01  0.1775E-01  0.2639E-01  0.3201E-01  0.3118E-01  0.2551E-01  0.2162E-01  0.2280E-01  0.2998E-01  0.2733E-01
 132.00  0.1349E-01  0.1325E-01  0.1163E-01  0.1107E-01  0.1132E-01  0.1346E-01  0.1299E-01  0.1736E-01  0.2097E-01  0.1822E-01
 132.50  0.1716E-01  0.1118E-01  0.1105E-01  0.1455E-01  0.1795E-01  0.1827E-01  0.1440E-01  0.1587E-01  0.2382E-01  0.3352E-01
 133.00  0.2879E-01  0.1945E-01  0.1503E-01  0.1534E-01  0.1475E-01  0.1599E-01  0.1237E-01  0.1136E-01  0.6356E-01  0.2897E+00
 133.50  0.5284E+00  0.5910E+00  0.6725E+00  0.4339E+00  0.9271E-01  0.3915E-01  0.1607E-01  0.1720E-01  0.1534E-01  0.1237E-01
 134.00  0.1478E-01  0.1589E-01  0.1583E-01  0.1665E-01  0.1980E-01  0.2100E-01  0.1761E-01  0.1828E-01  0.2007E-01  0.1679E-01
 134.50  0.1470E-01  0.1749E-01  0.1789E-01  0.1846E-01  0.2181E-01  0.1990E-01  0.1958E-01  0.1739E-01  0.1937E-01  0.2132E-01
 135.00  0.1939E-01  0.1855E-01  0.3103E-01  0.5343E-01  0.5397E-01  0.3402E-01  0.2322E-01  0.2148E-01  0.2398E-01  0.3002E-01
 135.50  0.5305E-01  0.8904E-01  0.8065E-01  0.4746E-01  0.3437E-01  0.3091E-01  0.4061E-01  0.5062E-01  0.4852E-01  0.4130E-01
 136.00  0.2762E-01  0.2379E-01  0.2958E-01  0.3144E-01  0.2788E-01  0.2173E-01  0.2212E-01  0.2968E-01  0.3500E-01  0.3352E-01
 136.50  0.2461E-01  0.2137E-01  0.2201E-01  0.2200E-01  0.2469E-01  0.2523E-01  0.2710E-01  0.2611E-01  0.2707E-01  0.2811E-01
 137.00  0.2769E-01  0.3155E-01  0.3084E-01  0.3007E-01  0.3166E-01  0.2961E-01  0.2698E-01  0.2663E-01  0.2842E-01  0.2880E-01
 137.50  0.2577E-01  0.2518E-01  0.2551E-01  0.2764E-01  0.2751E-01  0.2540E-01  0.2707E-01  0.2631E-01  0.2791E-01  0.3022E-01
 138.00  0.2816E-01  0.2760E-01  0.3082E-01  0.3316E-01  0.2903E-01  0.2685E-01  0.2794E-01  0.2532E-01  0.2608E-01  0.3049E-01
 138.50  0.2658E-01  0.2732E-01  0.2561E-01  0.2894E-01  0.3353E-01  0.2849E-01  0.2801E-01  0.2895E-01  0.2640E-01  0.2777E-01
 139.00  0.2919E-01  0.2700E-01  0.2631E-01  0.2870E-01  0.3879E-01  0.7091E-01  0.1449E+00  0.2934E+00  0.2967E+00  0.9113E-01
 139.50  0.4227E-01  0.3434E-01  0.3272E-01  0.3456E-01  0.3210E-01  0.3025E-01  0.3266E-01  0.3620E-01  0.3877E-01  0.3953E-01
 140.00  0.4595E-01  0.6574E-01  0.6243E-01  0.7330E-01  0.1252E+00  0.1783E+00  0.1213E+00  0.5062E-01  0.4826E-01  0.4723E-01
 140.50  0.4512E-01  0.4325E-01  0.4120E-01  0.3491E-01  0.3862E-01  0.4219E-01  0.3752E-01  0.3801E-01  0.3576E-01  0.3334E-01
 141.00  0.3763E-01  0.3993E-01  0.4072E-01  0.4044E-01  0.4178E-01  0.4262E-01  0.4033E-01  0.3888E-01  0.3604E-01  0.3475E-01
 141.50  0.3812E-01  0.4050E-01  0.4254E-01  0.4256E-01  0.3853E-01  0.3535E-01  0.3447E-01  0.3752E-01  0.4052E-01  0.3776E-01
 142.00  0.3507E-01  0.3588E-01  0.3890E-01  0.3917E-01  0.3823E-01  0.3813E-01  0.4022E-01  0.4424E-01  0.6461E-01  0.7802E-01
 142.50  0.6645E-01  0.5313E-01  0.4047E-01  0.4078E-01  0.4182E-01  0.4167E-01  0.4066E-01  0.3998E-01  0.4041E-01  0.4000E-01
 143.00  0.4118E-01  0.4309E-01  0.4869E-01  0.6081E-01  0.6687E-01  0.6283E-01  0.6106E-01  0.5276E-01  0.4347E-01  0.4997E-01
 143.50  0.5148E-01  0.4691E-01  0.5192E-01  0.5378E-01  0.5141E-01  0.4960E-01  0.4481E-01  0.4254E-01  0.4232E-01  0.4276E-01
 144.00  0.4821E-01  0.5080E-01  0.4835E-01  0.4845E-01  0.5251E-01  0.5307E-01  0.4949E-01  0.5244E-01  0.5429E-01  0.5302E-01
 144.50  0.5303E-01  0.5110E-01  0.5599E-01  0.5393E-01  0.5057E-01  0.5013E-01  0.5094E-01  0.4768E-01  0.4971E-01  0.5072E-01
 145.00  0.4695E-01  0.4598E-01  0.4685E-01  0.4622E-01  0.4953E-01  0.5204E-01  0.5209E-01  0.5407E-01  0.5689E-01  0.5587E-01
 145.50  0.5751E-01  0.5748E-01  0.5295E-01  0.4759E-01  0.5185E-01  0.5410E-01  0.5584E-01  0.5889E-01  0.5693E-01  0.5355E-01
 146.00  0.5541E-01  0.5950E-01  0.5565E-01  0.5174E-01  0.5672E-01  0.6284E-01  0.6859E-01  0.6612E-01  0.5806E-01  0.5729E-01
 146.50  0.5822E-01  0.5940E-01  0.6289E-01  0.7520E-01  0.8892E-01  0.9071E-01  0.8056E-01  0.6741E-01  0.6243E-01  0.6809E-01
 147.00  0.7086E-01  0.6596E-01  0.6634E-01  0.7142E-01  0.9957E-01  0.1382E+00  0.1422E+00  0.1414E+00  0.1141E+00  0.9059E-01
 147.50  0.6669E-01  0.6287E-01  0.6457E-01  0.6491E-01  0.6415E-01  0.6301E-01  0.6312E-01  0.5980E-01  0.5974E-01  0.5944E-01
 148.00  0.6259E-01  0.8395E-01  0.1109E+00  0.1235E+00  0.1030E+00  0.9986E-01  0.9631E-01  0.7233E-01  0.7046E-01  0.7452E-01
 148.50  0.7807E-01  0.9309E-01  0.9472E-01  0.8904E-01  0.8616E-01  0.7531E-01  0.6988E-01  0.7000E-01  0.7012E-01  0.6890E-01
 149.00  0.7054E-01  0.7273E-01  0.7591E-01  0.7103E-01  0.8591E-01  0.8651E-01  0.7515E-01  0.7627E-01  0.7531E-01  0.7568E-01
 149.50  0.7408E-01  0.7428E-01  0.7596E-01  0.7428E-01  0.7395E-01  0.7905E-01  0.8245E-01  0.7662E-01  0.7932E-01  0.8283E-01
 150.00  0.8404E-01  0.8406E-01  0.8030E-01  0.8875E-01  0.8763E-01  0.8456E-01  0.8382E-01  0.8541E-01  0.8794E-01  0.8510E-01
 150.50  0.8572E-01  0.8681E-01  0.8622E-01  0.8505E-01  0.8472E-01  0.8301E-01  0.8501E-01  0.8714E-01  0.8786E-01  0.9348E-01
 151.00  0.8528E-01  0.1100E+00  0.1098E+00  0.1054E+00  0.9757E-01  0.8746E-01  0.9173E-01  0.9614E-01  0.8344E-01  0.8795E-01
 151.50  0.9245E-01  0.9174E-01  0.9108E-01  0.8811E-01  0.8758E-01  0.9153E-01  0.9323E-01  0.9232E-01  0.9658E-01  0.9831E-01
 152.00  0.8579E-01  0.9206E-01  0.9464E-01  0.9631E-01  0.9530E-01  0.9868E-01  0.1033E+00  0.1054E+00  0.1016E+00  0.9994E-01
 152.50  0.9918E-01  0.1032E+00  0.1458E+00  0.2007E+00  0.2054E+00  0.1649E+00  0.1056E+00  0.1110E+00  0.1103E+00  0.1049E+00
 153.00  0.9826E-01  0.1031E+00  0.1088E+00  0.1126E+00  0.1091E+00  0.1443E+00  0.1950E+00  0.2183E+00  0.1894E+00  0.1350E+00
 153.50  0.1146E+00  0.1062E+00  0.1056E+00  0.1160E+00  0.1461E+00  0.1415E+00  0.1238E+00  0.1041E+00  0.9938E-01  0.1006E+00
 154.00  0.1111E+00  0.1300E+00  0.1462E+00  0.1408E+00  0.1348E+00  0.1115E+00  0.9608E-01  0.9929E-01  0.1040E+00  0.1153E+00
 154.50  0.1247E+00  0.1193E+00  0.1184E+00  0.9577E-01  0.1766E+00  0.4678E+00  0.6565E+00  0.6417E+00  0.3351E+00  0.1256E+00
 155.00  0.2067E+00  0.3868E+00  0.4074E+00  0.2281E+00  0.1591E+00  0.1361E+00  0.1059E+00  0.1035E+00  0.9743E-01  0.1057E+00
 155.50  0.1231E+00  0.1194E+00  0.1130E+00  0.1200E+00  0.1161E+00  0.1232E+00  0.1641E+00  0.2015E+00  0.2270E+00  0.2461E+00
 156.00  0.2910E+00  0.3284E+00  0.3568E+00  0.2963E+00  0.1710E+00  0.1209E+00  0.1400E+00  0.1671E+00  0.1582E+00  0.1281E+00
 156.50  0.1218E+00  0.1165E+00  0.1299E+00  0.1456E+00  0.1573E+00  0.1550E+00  0.1513E+00  0.1374E+00  0.1439E+00  0.1838E+00
 157.00  0.1975E+00  0.1715E+00  0.1609E+00  0.1494E+00  0.1366E+00  0.1444E+00  0.1583E+00  0.1868E+00  0.2309E+00  0.2407E+00
 157.50  0.2184E+00  0.1762E+00  0.1437E+00  0.1495E+00  0.1518E+00  0.1431E+00  0.1335E+00  0.1310E+00  0.1202E+00  0.1264E+00
 158.00  0.1635E+00  0.1872E+00  0.1713E+00  0.1404E+00  0.1241E+00  0.1351E+00  0.1460E+00  0.1499E+00  0.1677E+00  0.1835E+00
 158.50  0.1769E+00  0.1623E+00  0.1551E+00  0.1502E+00  0.1546E+00  0.1842E+00  0.2099E+00  0.1886E+00  0.1619E+00  0.1642E+00
 159.00  0.1681E+00  0.1650E+00  0.1615E+00  0.1665E+00  0.1702E+00  0.1675E+00  0.1657E+00  0.1714E+00  0.1843E+00  0.1956E+00
 159.50  0.1908E+00  0.1738E+00  0.1529E+00  0.1384E+00  0.1452E+00  0.1572E+00  0.1576E+00  0.1496E+00  0.1447E+00  0.1596E+00
 160.00  0.1770E+00  0.1743E+00  0.1714E+00  0.1911E+00  0.2208E+00  0.2199E+00  0.1971E+00  0.1709E+00  0.1628E+00  0.1664E+00
 160.50  0.1734E+00  0.1819E+00  0.1792E+00  0.1743E+00  0.1762E+00  0.2029E+00  0.2240E+00  0.2100E+00  0.1932E+00  0.1867E+00
 161.00  0.2125E+00  0.2562E+00  0.2474E+00  0.2218E+00  0.2417E+00  0.2763E+00  0.2908E+00  0.2700E+00  0.2375E+00  0.2121E+00
 161.50  0.2032E+00  0.1950E+00  0.1949E+00  0.2041E+00  0.2101E+00  0.2142E+00  0.2293E+00  0.2267E+00  0.2048E+00  0.2119E+00
 162.00  0.2137E+00  0.2166E+00  0.2516E+00  0.2698E+00  0.2634E+00  0.2699E+00  0.2670E+00  0.2462E+00  0.2296E+00  0.2404E+00
 162.50  0.2999E+00  0.3263E+00  0.2816E+00  0.2469E+00  0.2544E+00  0.2479E+00  0.2420E+00  0.2707E+00  0.2861E+00  0.2738E+00
 163.00  0.2541E+00  0.2283E+00  0.2272E+00  0.2611E+00  0.2812E+00  0.2961E+00  0.3076E+00  0.3116E+00  0.3064E+00  0.2644E+00
 163.50  0.2318E+00  0.2375E+00  0.2627E+00  0.2954E+00  0.3174E+00  0.3064E+00  0.2614E+00  0.2553E+00  0.3234E+00  0.4168E+00
 164.00  0.4697E+00  0.4097E+00  0.3063E+00  0.2711E+00  0.2740E+00  0.3024E+00  0.3398E+00  0.3477E+00  0.3245E+00  0.2990E+00
 164.50  0.2941E+00  0.2788E+00  0.2788E+00  0.2788E+00  0.2742E+00  0.2845E+00  0.2840E+00  0.2896E+00  0.3080E+00  0.3035E+00
 165.00  0.2790E+00  0.2710E+00  0.2676E+00  0.2694E+00  0.2785E+00  0.2727E+00  0.2798E+00  0.3125E+00  0.3523E+00  0.3390E+00
 165.50  0.3658E+00  0.4814E+00  0.7587E+00  0.9372E+00  0.1042E+01  0.1032E+01  0.8773E+00  0.6644E+00  0.5012E+00  0.4159E+00
 166.00  0.3792E+00  0.3311E+00  0.3402E+00  0.3410E+00  0.3413E+00  0.3826E+00  0.3832E+00  0.3730E+00  0.3380E+00  0.3232E+00
 166.50  0.3406E+00  0.3709E+00  0.3971E+00  0.3717E+00  0.3475E+00  0.3385E+00  0.3335E+00  0.3288E+00  0.3570E+00  0.3813E+00
 167.00  0.4438E+00  0.5991E+00  0.5330E+00  0.3716E+00  0.3159E+00  0.3220E+00  0.3457E+00  0.4062E+00  0.4433E+00  0.4368E+00
 167.50  0.3886E+00  0.3545E+00  0.3842E+00  0.4072E+00  0.4134E+00  0.4070E+00  0.3807E+00  0.3800E+00  0.3977E+00  0.4109E+00
 168.00  0.4049E+00  0.4146E+00  0.4427E+00  0.4398E+00  0.4093E+00  0.4033E+00  0.4183E+00  0.4193E+00  0.4187E+00  0.4211E+00
 168.50  0.4326E+00  0.4695E+00  0.5398E+00  0.5902E+00  0.5437E+00  0.4858E+00  0.4952E+00  0.5187E+00  0.5073E+00  0.5029E+00
 169.00  0.5147E+00  0.5271E+00  0.5897E+00  0.6094E+00  0.5730E+00  0.5633E+00  0.5669E+00  0.5723E+00  0.5957E+00  0.6360E+00
 169.50  0.6464E+00  0.6178E+00  0.5964E+00  0.6616E+00  0.7383E+00  0.7260E+00  0.6429E+00  0.6291E+00  0.6683E+00  0.6818E+00
 170.00  0.6574E+00  0.6479E+00  0.6859E+00  0.7953E+00  0.8769E+00  0.8611E+00  0.7538E+00  0.6823E+00  0.7078E+00  0.7135E+00
 170.50  0.6779E+00  0.6572E+00  0.6760E+00  0.6815E+00  0.6712E+00  0.6663E+00  0.6960E+00  0.7535E+00  0.7777E+00  0.7774E+00
 171.00  0.7856E+00  0.7606E+00  0.7388E+00  0.7333E+00  0.6500E+00  0.6655E+00  0.7213E+00  0.7198E+00  0.6573E+00  0.6142E+00
 171.50  0.6315E+00  0.6659E+00  0.7177E+00  0.7702E+00  0.8016E+00  0.8240E+00  0.8204E+00  0.7694E+00  0.7518E+00  0.7381E+00
 172.00  0.7534E+00  0.8217E+00  0.8665E+00  0.8323E+00  0.7579E+00  0.7254E+00  0.7267E+00  0.7209E+00  0.7035E+00  0.7810E+00
 172.50  0.8567E+00  0.8750E+00  0.8148E+00  0.8074E+00  0.8255E+00  0.8252E+00  0.8229E+00  0.8083E+00  0.7613E+00  0.6811E+00
 173.00  0.6619E+00  0.6772E+00  0.6900E+00  0.7333E+00  0.7512E+00  0.7401E+00  0.7637E+00  0.7732E+00  0.7770E+00  0.8001E+00
 173.50  0.7910E+00  0.7880E+00  0.8165E+00  0.8233E+00  0.8115E+00  0.8138E+00  0.8226E+00  0.8344E+00  0.8623E+00  0.8655E+00
 174.00  0.8682E+00  0.8687E+00  0.8779E+00  0.9340E+00  0.9895E+00  0.9841E+00  0.9885E+00  0.9906E+00  0.9905E+00  0.9572E+00
 174.50  0.1031E+01  0.1023E+01  0.1015E+01  0.1043E+01  0.9634E+00  0.8697E+00  0.8767E+00  0.9202E+00  0.9493E+00  0.9523E+00
 175.00  0.9575E+00  0.1035E+01  0.1076E+01  0.1109E+01  0.1121E+01  0.1102E+01  0.1080E+01  0.1113E+01  0.1153E+01  0.1195E+01
 175.50  0.1242E+01  0.1229E+01  0.1202E+01  0.1183E+01  0.1176E+01  0.1218E+01  0.1218E+01  0.1213E+01  0.1282E+01  0.1253E+01
 176.00  0.1229E+01  0.1240E+01  0.1253E+01  0.1318E+01  0.1342E+01  0.1280E+01  0.1141E+01  0.1126E+01  0.1153E+01  0.1211E+01
 176.50  0.1157E+01  0.1085E+01  0.1043E+01  0.1158E+01  0.1409E+01  0.1544E+01  0.1492E+01  0.1372E+01  0.1302E+01  0.1326E+01
 177.00  0.1351E+01  0.1449E+01  0.1533E+01  0.1626E+01  0.1613E+01  0.1696E+01  0.1822E+01  0.1788E+01  0.1716E+01  0.1557E+01
 177.50  0.1341E+01  0.1217E+01  0.1228E+01  0.1306E+01  0.1365E+01  0.1371E+01  0.1399E+01  0.1470E+01  0.1620E+01  0.1677E+01
 178.00  0.1637E+01  0.1707E+01  0.1731E+01  0.1651E+01  0.1510E+01  0.1479E+01  0.1555E+01  0.1631E+01  0.1646E+01  0.1646E+01
 178.50  0.1630E+01  0.1645E+01  0.1712E+01  0.1687E+01  0.1640E+01  0.1645E+01  0.1653E+01  0.1669E+01  0.1743E+01  0.1848E+01
 179.00  0.1810E+01  0.1822E+01  0.1868E+01  0.1857E+01  0.1796E+01  0.1613E+01  0.1532E+01  0.1460E+01  0.1435E+01  0.1473E+01
 179.50  0.1523E+01  0.1603E+01  0.1653E+01  0.1602E+01  0.1599E+01  0.1651E+01  0.1686E+01  0.1696E+01  0.1708E+01  0.1720E+01
 180.00  0.1738E+01  0.1771E+01  0.1824E+01  0.1863E+01  0.1873E+01  0.1887E+01  0.1850E+01  0.1880E+01  0.1854E+01  0.1856E+01
 180.50  0.1920E+01  0.1974E+01  0.1976E+01  0.1922E+01  0.1774E+01  0.1880E+01  0.2577E+01  0.2967E+01  0.2749E+01  0.2253E+01
 181.00  0.1867E+01  0.1902E+01  0.2020E+01  0.1982E+01  0.1926E+01  0.1898E+01  0.1931E+01  0.1893E+01  0.1818E+01  0.1731E+01
 181.50  0.1785E+01  0.1877E+01  0.1822E+01  0.2386E+01  0.3597E+01  0.4543E+01  0.4393E+01  0.3024E+01  0.2392E+01  0.2227E+01
 182.00  0.2245E+01  0.2074E+01  0.1995E+01  0.2130E+01  0.2269E+01  0.2268E+01  0.2301E+01  0.2471E+01  0.2582E+01  0.2676E+01
 182.50  0.2602E+01  0.2498E+01  0.2372E+01  0.2254E+01  0.2237E+01  0.2248E+01  0.2179E+01  0.2141E+01  0.2204E+01  0.2299E+01
 183.00  0.2326E+01  0.2250E+01  0.2215E+01  0.2248E+01  0.2336E+01  0.2410E+01  0.2459E+01  0.2400E+01  0.2397E+01  0.2505E+01
 183.50  0.2629E+01  0.2651E+01  0.2593E+01  0.2446E+01  0.2358E+01  0.2456E+01  0.2521E+01  0.2509E+01  0.2566E+01  0.2741E+01
 184.00  0.2666E+01  0.2380E+01  0.2262E+01  0.1996E+01  0.1945E+01  0.2135E+01  0.2303E+01  0.2360E+01  0.2308E+01  0.2297E+01
 184.50  0.2347E+01  0.2198E+01  0.2069E+01  0.2079E+01  0.2092E+01  0.1946E+01  0.1730E+01  0.1751E+01  0.1920E+01  0.2190E+01
 185.00  0.2474E+01  0.2335E+01  0.1879E+01  0.1880E+01  0.1957E+01  0.1997E+01  0.2026E+01  0.2234E+01  0.2395E+01  0.2761E+01
 185.50  0.2898E+01  0.2906E+01  0.2818E+01  0.2882E+01  0.2782E+01  0.2561E+01  0.2488E+01  0.2500E+01  0.2508E+01  0.2446E+01
 186.00  0.2424E+01  0.2518E+01  0.2540E+01  0.2529E+01  0.2592E+01  0.2635E+01  0.2754E+01  0.2807E+01  0.2691E+01  0.2664E+01
 186.50  0.2556E+01  0.2554E+01  0.2502E+01  0.2659E+01  0.2942E+01  0.3032E+01  0.3240E+01  0.3277E+01  0.3238E+01  0.3257E+01
 187.00  0.3233E+01  0.3270E+01  0.3233E+01  0.3416E+01  0.3407E+01  0.3286E+01  0.3134E+01  0.3084E+01  0.3197E+01  0.3288E+01
 187.50  0.3231E+01  0.3128E+01  0.3185E+01  0.3166E+01  0.3151E+01  0.3140E+01  0.3155E+01  0.3114E+01  0.3058E+01  0.3015E+01
 188.00  0.2974E+01  0.2994E+01  0.2961E+01  0.2948E+01  0.2930E+01  0.3045E+01  0.3425E+01  0.3520E+01  0.3453E+01  0.3544E+01
 188.50  0.3372E+01  0.3378E+01  0.3440E+01  0.3397E+01  0.3443E+01  0.3498E+01  0.3413E+01  0.3342E+01  0.3431E+01  0.3630E+01
 189.00  0.3641E+01  0.3585E+01  0.3595E+01  0.3773E+01  0.4015E+01  0.4191E+01  0.4086E+01  0.3403E+01  0.3633E+01  0.3721E+01
 189.50  0.3948E+01  0.3776E+01  0.3709E+01  0.3717E+01  0.3758E+01  0.3613E+01  0.3348E+01  0.3208E+01  0.3119E+01  0.3209E+01
 190.00  0.3459E+01  0.3616E+01  0.3562E+01  0.3330E+01  0.3331E+01  0.3572E+01  0.3649E+01  0.3787E+01  0.3993E+01  0.3958E+01
 190.50  0.3828E+01  0.3850E+01  0.3688E+01  0.3726E+01  0.3841E+01  0.3925E+01  0.3936E+01  0.4136E+01  0.4336E+01  0.4405E+01
 191.00  0.4231E+01  0.3660E+01  0.3757E+01  0.3749E+01  0.3878E+01  0.4035E+01  0.3971E+01  0.3967E+01  0.4044E+01  0.4086E+01
 191.50  0.4259E+01  0.4457E+01  0.4687E+01  0.4400E+01  0.4385E+01  0.4301E+01  0.4131E+01  0.4058E+01  0.4049E+01  0.4166E+01
 192.00  0.4296E+01  0.4453E+01  0.4598E+01  0.4802E+01  0.4796E+01  0.4522E+01  0.4398E+01  0.4557E+01  0.4513E+01  0.4324E+01
 192.50  0.4304E+01  0.4226E+01  0.4424E+01  0.4449E+01  0.4258E+01  0.4286E+01  0.4351E+01  0.4474E+01  0.4499E+01  0.4326E+01
 193.00  0.4092E+01  0.3703E+01  0.3319E+01  0.2958E+01  0.3020E+01  0.2891E+01  0.3051E+01  0.3362E+01  0.3288E+01  0.3341E+01
 193.50  0.3363E+01  0.2995E+01  0.2935E+01  0.2899E+01  0.2730E+01  0.3279E+01  0.3709E+01  0.4033E+01  0.4485E+01  0.4735E+01
 194.00  0.4813E+01  0.4838E+01  0.4901E+01  0.5228E+01  0.5828E+01  0.5869E+01  0.5936E+01  0.6014E+01  0.5722E+01  0.5535E+01
 194.50  0.5403E+01  0.5569E+01  0.5347E+01  0.5209E+01  0.5170E+01  0.5432E+01  0.6086E+01  0.6212E+01  0.6138E+01  0.6118E+01
 195.00  0.5714E+01  0.5395E+01  0.5466E+01  0.5260E+01  0.5080E+01  0.4777E+01  0.4946E+01  0.5203E+01  0.5832E+01  0.5888E+01
 195.50  0.5656E+01  0.5380E+01  0.5368E+01  0.5557E+01  0.5843E+01  0.5783E+01  0.5397E+01  0.5555E+01  0.5896E+01  0.6068E+01
 196.00  0.6044E+01  0.5838E+01  0.5640E+01  0.5273E+01  0.5289E+01  0.5392E+01  0.5454E+01  0.5495E+01  0.5544E+01  0.5933E+01
