LOWTRAN solar irradiance from Judith Lean
Scaled and reordered (using SUNLEAN.BAS)
Wvl(nm) Irrad(W m-2 nm-1)
   200.000   7.4250E-03
   200.080   7.4440E-03
   200.160   7.4131E-03
   200.240   7.7065E-03
   200.320   8.0492E-03
   200.400   8.0178E-03
   200.480   7.8124E-03
   200.560   7.7564E-03
   200.640   8.3215E-03
   200.720   8.4141E-03
   200.800   8.0601E-03
   200.880   7.9298E-03
   200.960   7.9977E-03
   201.050   8.2634E-03
   201.130   8.2815E-03
   201.210   7.6326E-03
   201.290   8.0213E-03
   201.370   8.6807E-03
   201.450   8.8216E-03
   201.530   8.4452E-03
   201.610   8.2907E-03
   201.690   8.3086E-03
   201.780   8.6212E-03
   201.860   9.1297E-03
   201.940   9.5637E-03
   202.020   9.1884E-03
   202.100   9.0096E-03
   202.180   8.6599E-03
   202.270   8.1885E-03
   202.350   8.2307E-03
   202.430   8.8585E-03
   202.510   9.0708E-03
   202.590   8.2838E-03
   202.680   6.7434E-03
   202.760   7.0055E-03
   202.840   8.8227E-03
   202.920   9.4227E-03
   203.000   9.4635E-03
   203.090   9.3104E-03
   203.170   9.9811E-03
   203.250   1.0457E-02
   203.330   1.0183E-02
   203.420   9.1351E-03
   203.500   8.3550E-03
   203.580   8.7101E-03
   203.670   9.6915E-03
   203.750   1.0527E-02
   203.830   1.0542E-02
   203.920   1.0269E-02
   204.000   9.4196E-03
   204.080   8.9797E-03
   204.160   1.0004E-02
   204.250   1.0931E-02
   204.330   1.1640E-02
   204.420   1.1176E-02
   204.500   1.0402E-02
   204.580   1.0561E-02
   204.670   1.1578E-02
   204.750   1.1617E-02
   204.830   1.0773E-02
   204.920   1.0645E-02
   205.000   1.0993E-02
   205.090   1.1032E-02
   205.170   1.1213E-02
   205.250   1.1417E-02
   205.340   1.1669E-02
   205.420   1.1920E-02
   205.510   1.1626E-02
   205.590   1.0694E-02
   205.680   1.0378E-02
   205.760   1.1408E-02
   205.850   1.1352E-02
   205.930   1.0564E-02
   206.020   1.1498E-02
   206.100   1.2077E-02
   206.190   1.1479E-02
   206.270   1.0224E-02
   206.360   1.0474E-02
   206.440   1.1404E-02
   206.530   1.1957E-02
   206.610   1.1877E-02
   206.700   1.1516E-02
   206.780   1.2161E-02
   206.870   1.2455E-02
   206.950   1.2071E-02
   207.040   1.2014E-02
   207.130   1.2354E-02
   207.210   1.2810E-02
   207.300   1.2706E-02
   207.380   1.3044E-02
   207.470   1.3544E-02
   207.560   1.3765E-02
   207.640   1.4195E-02
   207.730   1.4670E-02
   207.810   1.4750E-02
   207.900   1.3928E-02
   207.990   1.3986E-02
   208.070   1.4644E-02
   208.160   1.4055E-02
   208.250   1.3536E-02
   208.330   1.3455E-02
   208.420   1.4020E-02
   208.510   1.3640E-02
   208.590   1.4479E-02
   208.680   1.6924E-02
   208.770   1.7093E-02
   208.860   1.7904E-02
   208.940   1.9287E-02
   209.030   1.7211E-02
   209.120   1.6556E-02
   209.210   1.8347E-02
   209.290   1.9565E-02
   209.380   2.3951E-02
   209.470   2.1743E-02
   209.560   1.9288E-02
   209.640   2.1797E-02
   209.730   2.4098E-02
   209.820   2.6576E-02
   209.910   2.6781E-02
   210.000   2.2427E-02
   210.080   2.0868E-02
   210.170   2.6940E-02
   210.260   3.4382E-02
   210.350   3.0285E-02
   210.440   2.0662E-02
   210.530   2.5947E-02
   210.610   3.6746E-02
   210.700   3.6264E-02
   210.790   3.4433E-02
   210.880   3.0357E-02
   210.970   2.1726E-02
   211.060   2.0249E-02
   211.150   2.6243E-02
   211.240   3.8322E-02
   211.330   3.8066E-02
   211.420   3.1098E-02
   211.510   2.6601E-02
   211.600   2.6355E-02
   211.690   3.8384E-02
   211.770   4.6155E-02
   211.860   4.0101E-02
   211.950   3.8286E-02
   212.040   4.8040E-02
   212.130   4.7777E-02
   212.220   3.7967E-02
   212.310   3.0392E-02
   212.400   2.0813E-02
   212.490   1.5037E-02
   212.590   1.8521E-02
   212.680   2.9847E-02
   212.770   3.6448E-02
   212.860   3.7300E-02
   212.950   3.7048E-02
   213.040   3.0406E-02
   213.130   2.6418E-02
   213.220   2.9915E-02
   213.310   2.9889E-02
   213.400   3.0962E-02
   213.490   2.8741E-02
   213.580   2.6525E-02
   213.680   3.2197E-02
   213.770   4.0922E-02
   213.860   3.7608E-02
   213.950   2.6652E-02
   214.040   2.6848E-02
   214.130   4.0565E-02
   214.220   5.0989E-02
   214.320   4.7897E-02
   214.410   4.8944E-02
   214.500   4.7163E-02
   214.590   3.9957E-02
   214.680   3.4281E-02
   214.780   3.3601E-02
   214.870   3.7905E-02
   214.960   4.3715E-02
   215.050   4.2380E-02
   215.150   3.2622E-02
   215.240   3.2810E-02
   215.330   3.9683E-02
   215.420   4.6975E-02
   215.520   4.4351E-02
   215.610   3.8505E-02
   215.700   3.2884E-02
   215.800   2.5125E-02
   215.890   2.1670E-02
   215.980   2.3795E-02
   216.080   3.4269E-02
   216.170   4.3014E-02
   216.260   4.0838E-02
   216.360   3.9735E-02
   216.450   3.7993E-02
   216.540   3.5828E-02
   216.640   2.7274E-02
   216.730   1.9479E-02
   216.830   2.5312E-02
   216.920   2.9328E-02
   217.010   2.8028E-02
   217.110   3.3944E-02
   217.200   3.6670E-02
   217.300   3.8545E-02
   217.390   3.4914E-02
   217.490   2.7696E-02
   217.580   2.6615E-02
   217.680   3.2079E-02
   217.770   2.7834E-02
   217.860   2.7178E-02
   217.960   4.2731E-02
   218.050   5.3420E-02
   218.150   5.5685E-02
   218.250   5.8365E-02
   218.340   5.4539E-02
   218.440   4.6527E-02
   218.530   4.6696E-02
   218.630   4.7492E-02
   218.720   3.0937E-02
   218.820   3.4878E-02
   218.910   4.0899E-02
   219.010   4.0029E-02
   219.110   4.4785E-02
   219.200   4.0583E-02
   219.300   5.0113E-02
   219.390   6.1703E-02
   219.490   5.3346E-02
   219.590   4.0441E-02
   219.680   3.5640E-02
   219.780   4.5546E-02
   219.880   5.7296E-02
   219.970   5.7658E-02
   220.070   4.2948E-02
   220.170   3.4245E-02
   220.260   4.9468E-02
   220.360   6.5487E-02
   220.460   6.3989E-02
   220.560   5.8382E-02
   220.650   5.4223E-02
   220.750   4.4325E-02
   220.850   3.7315E-02
   220.950   3.6668E-02
   221.040   3.0905E-02
   221.140   2.0326E-02
   221.240   2.5947E-02
   221.340   4.5724E-02
   221.430   4.5479E-02
   221.530   4.5235E-02
   221.630   3.4609E-02
   221.730   2.4205E-02
   221.830   2.8044E-02
   221.930   4.3045E-02
   222.020   5.1932E-02
   222.120   5.4724E-02
   222.220   5.3865E-02
   222.320   4.8152E-02
   222.420   4.9929E-02
   222.520   4.9884E-02
   222.620   4.8024E-02
   222.720   4.3344E-02
   222.820   4.4716E-02
   222.920   5.2122E-02
   223.020   4.9461E-02
   223.110   4.3190E-02
   223.210   5.5194E-02
   223.310   7.6199E-02
   223.410   7.7734E-02
   223.510   7.4662E-02
   223.610   7.6395E-02
   223.710   6.9733E-02
   223.810   5.8691E-02
   223.910   5.5647E-02
   224.010   6.5760E-02
   224.110   5.9728E-02
   224.220   5.1917E-02
   224.320   4.9684E-02
   224.420   4.6264E-02
   224.520   5.3761E-02
   224.620   6.2632E-02
   224.720   6.8319E-02
   224.820   6.9840E-02
   224.920   5.6336E-02
   225.020   5.2138E-02
   225.120   4.9920E-02
   225.230   5.4410E-02
   225.330   5.3770E-02
   225.430   4.6637E-02
   225.530   5.0331E-02
   225.630   4.5374E-02
   225.730   4.9455E-02
   225.840   5.1371E-02
   225.940   5.1716E-02
   226.040   4.0709E-02
   226.140   4.1650E-02
   226.240   4.8255E-02
   226.350   4.3332E-02
   226.450   3.6077E-02
   226.550   3.1953E-02
   226.650   3.2702E-02
   226.760   3.2089E-02
   226.860   3.0506E-02
   226.960   2.9313E-02
   227.070   2.9481E-02
   227.170   3.1392E-02
   227.270   3.4074E-02
   227.380   3.3656E-02
   227.480   3.5751E-02
   227.580   3.5911E-02
   227.690   3.9544E-02
   227.790   4.3748E-02
   227.890   4.5441E-02
   228.000   4.4437E-02
   228.100   5.1508E-02
   228.210   6.0678E-02
   228.310   5.7170E-02
   228.410   5.2134E-02
   228.520   6.1661E-02
   228.620   5.2230E-02
   228.730   3.7846E-02
   228.830   4.6405E-02
   228.940   4.6935E-02
   229.040   4.1555E-02
   229.150   4.2660E-02
   229.250   4.6426E-02
   229.360   4.9805E-02
   229.460   5.0329E-02
   229.570   5.7114E-02
   229.670   5.1185E-02
   229.780   3.2577E-02
   229.890   3.2168E-02
   229.990   3.7054E-02
   230.100   3.9286E-02
   230.200   4.6798E-02
   230.310   4.4870E-02
   230.410   4.4829E-02
   230.520   6.0595E-02
   230.630   7.3888E-02
   230.730   6.8936E-02
   230.840   5.8738E-02
   230.950   4.8185E-02
   231.050   3.9149E-02
   231.160   3.2563E-02
   231.270   3.1785E-02
   231.370   3.8107E-02
   231.480   5.6174E-02
   231.590   5.9105E-02
   231.700   5.2717E-02
   231.800   5.3971E-02
   231.910   5.0016E-02
   232.020   3.5852E-02
   232.130   3.8602E-02
   232.230   5.8777E-02
   232.340   7.6506E-02
   232.450   6.3295E-02
   232.560   4.0678E-02
   232.670   3.6207E-02
   232.770   4.3924E-02
   232.880   5.5684E-02
   232.990   5.3053E-02
   233.100   4.1225E-02
   233.210   3.4016E-02
   233.320   3.5821E-02
   233.430   4.5331E-02
   233.540   5.6290E-02
   233.640   5.3856E-02
   233.750   3.4040E-02
   233.860   2.9438E-02
   233.970   3.6899E-02
   234.080   4.4347E-02
   234.190   4.7223E-02
   234.300   3.4246E-02
   234.410   2.4204E-02
   234.520   2.7273E-02
   234.630   3.1606E-02
   234.740   3.1032E-02
   234.850   3.1547E-02
   234.960   4.6733E-02
   235.070   5.1937E-02
   235.180   5.8035E-02
   235.290   6.0871E-02
   235.400   4.9986E-02
   235.520   4.9398E-02
   235.630   6.1780E-02
   235.740   6.1721E-02
   235.850   4.5124E-02
   235.960   3.1072E-02
   236.070   3.5529E-02
   236.180   4.6610E-02
   236.290   5.6058E-02
   236.410   4.6343E-02
   236.520   3.9506E-02
   236.630   4.0183E-02
   236.740   4.0502E-02
   236.850   4.6880E-02
   236.970   5.4672E-02
   237.080   6.2626E-02
   237.190   6.1500E-02
   237.300   4.0488E-02
   237.420   3.7611E-02
   237.530   4.6083E-02
   237.640   6.1090E-02
   237.760   5.8732E-02
   237.870   4.2770E-02
   237.980   3.7256E-02
   238.100   2.7871E-02
   238.210   2.1853E-02
   238.320   2.5881E-02
   238.440   3.7818E-02
   238.550   5.0961E-02
   238.660   5.2668E-02
   238.780   3.9639E-02
   238.890   3.4870E-02
   239.010   5.3393E-02
   239.120   5.9463E-02
   239.230   5.7484E-02
   239.350   5.0272E-02
   239.460   2.8600E-02
   239.580   2.8921E-02
   239.690   4.0903E-02
   239.810   3.8082E-02
   239.920   3.8219E-02
   240.040   4.9116E-02
   240.150   4.7855E-02
   240.270   4.4172E-02
   240.380   3.0458E-02
   240.500   2.9045E-02
   240.620   3.1608E-02
   240.730   4.0206E-02
   240.850   4.7063E-02
   240.960   3.4789E-02
   241.080   3.0454E-02
   241.200   3.7473E-02
   241.310   3.8295E-02
   241.430   4.8037E-02
   241.550   5.5704E-02
   241.660   5.9417E-02
   241.780   6.3978E-02
   241.900   6.8018E-02
   242.010   7.3928E-02
   242.130   7.9997E-02
   242.250   6.9184E-02
   242.370   6.1456E-02
   242.480   6.6669E-02
   242.600   7.9008E-02
   242.720   8.0628E-02
   242.840   6.7493E-02
   242.950   7.3526E-02
   243.070   7.4808E-02
   243.190   6.4760E-02
   243.310   6.5035E-02
   243.430   6.1765E-02
   243.550   5.5973E-02
   243.660   6.4676E-02
   243.780   6.7979E-02
   243.900   5.9003E-02
   244.020   6.7342E-02
   244.140   7.8182E-02
   244.260   7.4753E-02
   244.380   6.5136E-02
   244.500   6.4069E-02
   244.620   6.0664E-02
   244.740   5.3258E-02
   244.860   5.2539E-02
   244.980   5.2488E-02
   245.100   4.7942E-02
   245.220   4.6232E-02
   245.340   4.6685E-02
   245.460   5.0456E-02
   245.580   4.9909E-02
   245.700   5.1848E-02
   245.820   5.4114E-02
   245.940   5.0424E-02
   246.060   4.6575E-02
   246.180   4.1910E-02
   246.310   4.2528E-02
   246.430   5.0225E-02
   246.550   5.2150E-02
   246.670   5.2920E-02
   246.790   5.7137E-02
   246.910   5.7409E-02
   247.040   5.7680E-02
   247.160   5.8932E-02
   247.280   4.7590E-02
   247.400   5.8979E-02
   247.520   6.4634E-02
   247.650   6.1635E-02
   247.770   5.6361E-02
   247.890   4.7518E-02
   248.020   5.0397E-02
   248.140   5.5381E-02
   248.260   4.0075E-02
   248.390   3.3066E-02
   248.510   4.5339E-02
   248.630   5.1118E-02
   248.760   4.1532E-02
   248.880   3.5679E-02
   249.000   3.3385E-02
   249.130   3.2224E-02
   249.250   4.7484E-02
   249.380   6.1587E-02
   249.500   7.2770E-02
   249.630   6.9328E-02
   249.750   7.0862E-02
   249.880   7.3513E-02
   250.000   7.4080E-02
   250.130   5.5944E-02
   250.250   5.9241E-02
   250.380   6.9870E-02
   250.500   6.7888E-02
   250.630   4.9989E-02
   250.750   4.7394E-02
   250.880   6.5142E-02
   251.000   6.7457E-02
   251.130   5.6131E-02
   251.260   5.4333E-02
   251.380   4.5258E-02
   251.510   3.9205E-02
   251.640   3.6639E-02
   251.760   3.9126E-02
   251.890   4.0033E-02
   252.020   4.5346E-02
   252.140   5.1120E-02
   252.270   4.1012E-02
   252.400   3.5633E-02
   252.530   4.2497E-02
   252.650   4.7781E-02
   252.780   3.9438E-02
   252.910   3.3457E-02
   253.040   4.2950E-02
   253.160   5.9602E-02
   253.290   5.7983E-02
   253.420   5.6678E-02
   253.550   5.4599E-02
   253.680   5.1901E-02
   253.810   5.5885E-02
   253.940   5.6449E-02
   254.070   5.9335E-02
   254.190   5.5715E-02
   254.320   6.4162E-02
   254.450   6.7340E-02
   254.580   6.0637E-02
   254.710   5.7030E-02
   254.840   5.7896E-02
   254.970   5.1838E-02
   255.100   7.1300E-02
   255.230   9.0109E-02
   255.360   8.6950E-02
   255.490   9.1763E-02
   255.620   8.4630E-02
   255.750   8.1486E-02
   255.890   9.3620E-02
   256.020   1.0070E-01
   256.150   9.0533E-02
   256.280   7.1256E-02
   256.410   7.4681E-02
   256.540   1.0150E-01
   256.670   1.2310E-01
   256.810   1.2055E-01
   256.940   1.2891E-01
   257.070   1.3800E-01
   257.200   1.3514E-01
   257.330   1.4769E-01
   257.470   1.3486E-01
   257.600   8.7556E-02
   257.730   8.1595E-02
   257.860   1.1610E-01
   258.000   1.5008E-01
   258.130   1.8160E-01
   258.260   1.5592E-01
   258.400   1.2551E-01
   258.530   1.0099E-01
   258.670   6.8154E-02
   258.800   9.8691E-02
   258.930   1.4229E-01
   259.070   1.7135E-01
   259.200   1.2488E-01
   259.340   1.0438E-01
   259.470   8.9120E-02
   259.610   1.1084E-01
   259.740   1.1902E-01
   259.880   8.0995E-02
   260.010   5.2067E-02
   260.150   9.1761E-02
   260.280   1.3816E-01
   260.420   1.3581E-01
   260.550   1.0974E-01
   260.690   7.5929E-02
   260.820   7.5262E-02
   260.960   1.0793E-01
   261.100   1.0591E-01
   261.230   7.1216E-02
   261.370   6.9093E-02
   261.510   9.2271E-02
   261.640   1.2636E-01
   261.780   1.0565E-01
   261.920   9.8979E-02
   262.050   1.3062E-01
   262.190   1.2277E-01
   262.330   1.3790E-01
   262.470   1.4661E-01
   262.610   1.1775E-01
   262.740   1.0212E-01
   262.880   9.6662E-02
   263.020   9.6272E-02
   263.160   7.3933E-02
   263.300   8.9578E-02
   263.440   1.4309E-01
   263.570   1.8137E-01
   263.710   2.1281E-01
   263.850   2.8010E-01
   263.990   2.8698E-01
   264.130   2.5227E-01
   264.270   2.9640E-01
   264.410   3.4901E-01
   264.550   2.8577E-01
   264.690   2.4836E-01
   264.830   2.1245E-01
   264.970   2.0083E-01
   265.110   2.2053E-01
   265.250   2.4020E-01
   265.390   2.6976E-01
   265.530   3.2053E-01
   265.670   3.0886E-01
   265.820   2.9296E-01
   265.960   2.8841E-01
   266.100   2.9234E-01
   266.240   2.5535E-01
   266.380   2.3816E-01
   266.520   2.5762E-01
   266.670   2.6016E-01
   266.810   2.7112E-01
   266.950   2.5259E-01
   267.090   2.6493E-01
   267.240   2.5765E-01
   267.380   2.3919E-01
   267.520   3.2556E-01
   267.670   3.0986E-01
   267.810   2.5236E-01
   267.950   2.2145E-01
   268.100   2.4904E-01
   268.240   2.7935E-01
   268.380   2.6378E-01
   268.530   2.5517E-01
   268.670   2.8538E-01
   268.820   2.7538E-01
   268.960   2.3500E-01
   269.110   2.3060E-01
   269.250   2.6484E-01
   269.400   2.7971E-01
   269.540   2.3950E-01
   269.690   2.1999E-01
   269.830   2.4310E-01
   269.980   2.9772E-01
   270.120   3.2206E-01
   270.270   2.8201E-01
   270.420   3.2137E-01
   270.560   3.2512E-01
   270.710   2.6609E-01
   270.860   2.6580E-01
   271.000   2.7232E-01
   271.150   2.6931E-01
   271.300   3.0977E-01
   271.440   2.4429E-01
   271.590   2.2234E-01
   271.740   2.5324E-01
   271.890   1.6233E-01
   272.030   1.2391E-01
   272.180   1.6468E-01
   272.330   2.0225E-01
   272.480   1.9665E-01
   272.630   2.1661E-01
   272.780   2.0697E-01
   272.930   2.8864E-01
   273.070   3.0173E-01
   273.220   2.7193E-01
   273.370   2.2346E-01
   273.520   2.0718E-01
   273.670   1.7758E-01
   273.820   1.5604E-01
   273.970   1.4788E-01
   274.120   1.5304E-01
   274.270   1.2895E-01
   274.420   1.1632E-01
   274.570   1.5784E-01
   274.730   1.2441E-01
   274.880   1.3500E-01
   275.030   1.1052E-01
   275.180   1.9149E-01
   275.330   2.4008E-01
   275.480   1.8184E-01
   275.630   1.2991E-01
   275.790   2.1168E-01
   275.940   3.0995E-01
   276.090   2.8206E-01
   276.240   2.2802E-01
   276.400   2.6311E-01
   276.550   3.1643E-01
   276.700   2.7428E-01
   276.850   2.4658E-01
   277.010   2.5934E-01
   277.160   2.8639E-01
   277.320   2.8087E-01
   277.470   2.9874E-01
   277.620   2.5170E-01
   277.780   2.1514E-01
   277.930   1.7865E-01
   278.090   1.7199E-01
   278.240   1.7954E-01
   278.400   1.7547E-01
   278.550   1.8688E-01
   278.710   1.7766E-01
   278.860   1.4274E-01
   279.020   1.1946E-01
   279.170   1.0021E-01
   279.330   8.0487E-02
   279.490   7.5276E-02
   279.640   7.7750E-02
   279.800   6.4634E-02
   279.960   7.7831E-02
   280.110   7.5832E-02
   280.270   7.8421E-02
   280.430   7.6171E-02
   280.580   9.8060E-02
   280.740   1.2815E-01
   280.900   1.6222E-01
   281.060   1.8103E-01
   281.210   1.8083E-01
   281.370   2.1473E-01
   281.530   2.7378E-01
   281.690   2.6591E-01
   281.850   2.8450E-01
   282.010   3.1813E-01
   282.170   3.1902E-01
   282.330   3.3623E-01
   282.490   3.4462E-01
   282.650   3.1419E-01
   282.810   3.4009E-01
   282.970   3.7717E-01
   283.130   3.8298E-01
   283.290   3.7383E-01
   283.450   3.5971E-01
   283.610   2.9465E-01
   283.770   3.7256E-01
   283.930   3.7337E-01
   284.090   3.3578E-01
   284.250   3.4035E-01
   284.410   2.9422E-01
   284.580   2.8524E-01
   284.740   2.2571E-01
   284.900   1.6016E-01
   285.060   1.0042E-01
   285.230   6.2075E-02
   285.390   9.6260E-02
   285.550   1.5575E-01
   285.710   2.1193E-01
   285.880   2.7409E-01
   286.040   3.6055E-01
   286.200   3.7479E-01
   286.370   3.9265E-01
   286.530   4.0925E-01
   286.700   3.7958E-01
   286.860   3.4026E-01
   287.030   4.1027E-01
   287.190   4.9225E-01
   287.360   4.3476E-01
   287.520   4.0644E-01
   287.690   3.8664E-01
   287.850   3.5361E-01
   288.020   2.5436E-01
   288.180   1.6737E-01
   288.350   3.0068E-01
   288.520   4.5410E-01
   288.680   4.5597E-01
   288.850   4.4466E-01
   289.020   4.4534E-01
   289.180   4.5440E-01
   289.350   4.5745E-01
   289.520   5.2850E-01
   289.690   5.9105E-01
   289.860   5.9870E-01
   290.020   7.0381E-01
   290.190   6.6618E-01
   290.360   7.2234E-01
   290.530   7.2506E-01
   290.700   6.5795E-01
   290.870   6.2409E-01
   291.040   6.1982E-01
   291.210   6.7570E-01
   291.380   6.9612E-01
   291.550   5.9060E-01
   291.720   5.9814E-01
   291.890   6.0096E-01
   292.060   6.2253E-01
   292.230   6.0892E-01
   292.400   5.2985E-01
   292.570   5.0002E-01
   292.740   5.1110E-01
   292.910   5.0934E-01
   293.080   6.8337E-01
